Data Saved Successfully
Date and Time: 2018_08_16__18_35_18
Name: Power and background measurement, PMT at 0V
Description: Testing if spikes are from noise w/ PMT off
Aperture at 0.288" (3 deg), doing measurements in air
Substance: air
Sample ID: -1
Preamp Sensitivity: 100.000000
Incident Angle: 90.000000
Incident Power: 270000.000000
Wavelength: 405.000000
Temperature: 300.000000
Pressure: 1.013000
95.000000	12.905007
94.500000	12.909988
94.000000	12.906818
93.500000	12.895051
93.000000	12.902291
92.500000	12.903649
92.000000	12.907724
91.500000	12.896861
91.000000	12.904554
90.500000	12.909082
90.000000	12.902744
89.500000	12.904102
89.000000	12.897313
88.500000	12.899123
88.000000	12.905007
87.500000	12.903649
87.000000	12.903196
86.500000	12.892338
86.000000	12.900481
85.500000	12.907724
85.000000	12.902744
84.500000	12.909082
84.000000	12.910894
83.500000	12.896861
83.000000	12.908177
82.500000	12.902744
82.000000	12.907271
81.500000	12.901839
81.000000	12.901386
80.500000	12.900934
80.000000	12.905460
79.500000	12.907271
79.000000	12.902291
78.500000	12.918143
78.000000	12.900933
77.500000	12.906365
77.000000	12.906818
76.500000	12.905460
76.000000	12.900933
75.500000	12.903649
75.000000	12.895051
74.500000	12.899576
74.000000	12.905913
73.500000	12.905007
73.000000	12.895051
72.500000	12.903649
72.000000	12.898671
71.500000	12.900933
71.000000	12.909082
70.500000	12.901386
70.000000	12.905007
69.500000	12.900933
69.000000	12.909988
68.500000	12.913611
68.000000	12.908629
67.500000	12.905460
67.000000	12.900933
66.500000	12.897766
66.000000	12.908629
65.500000	12.909082
65.000000	12.909988
64.500000	12.895956
64.000000	12.914065
63.500000	12.906818
63.000000	12.911347
62.500000	12.905460
62.000000	12.905007
61.500000	12.904102
61.000000	12.909535
60.500000	12.897314
60.000000	12.911347
59.500000	12.895504
59.000000	12.910894
58.500000	12.891433
58.000000	12.897313
57.500000	12.904554
57.000000	12.911800
56.500000	12.899124
56.000000	12.893242
55.500000	12.910441
55.000000	12.902291
54.500000	12.896861
54.000000	12.895956
53.500000	12.908629
53.000000	12.911347
52.500000	12.900933
52.000000	12.910441
51.500000	12.905460
51.000000	12.909082
50.500000	12.904102
50.000000	12.899123
49.500000	12.893695
49.000000	12.905007
48.500000	12.900933
48.000000	12.902291
47.500000	12.903196
47.000000	12.907724
46.500000	12.911799
46.000000	12.907271
45.500000	12.898218
45.000000	12.910894
44.500000	12.903196
44.000000	12.900481
43.500000	12.913159
43.000000	12.895504
42.500000	12.905007
42.000000	12.890529
41.500000	12.903196
41.000000	12.906818
40.500000	12.918596
40.000000	12.900028
39.500000	12.904102
39.000000	12.910441
38.500000	12.906365
38.000000	12.908629
37.500000	12.902291
37.000000	12.908629
36.500000	12.908629
36.000000	12.891433
35.500000	12.907724
35.000000	12.902744
34.500000	12.902291
34.000000	12.906818
33.500000	12.901386
33.000000	12.892338
32.500000	12.911800
32.000000	12.890077
31.500000	12.906818
31.000000	12.914065
30.500000	12.900481
30.000000	12.897766
29.500000	12.905913
29.000000	12.909535
28.500000	12.913612
28.000000	12.906818
27.500000	12.905460
27.000000	12.901386
26.500000	12.903196
26.000000	12.914518
25.500000	12.906818
25.000000	12.918143
24.500000	12.914971
24.000000	12.908177
23.500000	12.907271
23.000000	12.910894
22.500000	12.911347
22.000000	12.903649
21.500000	12.891886
21.000000	12.900481
20.500000	12.914518
20.000000	12.902744
19.500000	12.912253
19.000000	12.907724
18.500000	12.897766
18.000000	12.900933
17.500000	12.913159
17.000000	12.905912
16.500000	12.908177
16.000000	12.906818
15.500000	12.908176
15.000000	12.918143
14.500000	12.903196
14.000000	12.909082
13.500000	12.909988
13.000000	12.900481
12.500000	12.896861
12.000000	12.909082
11.500000	12.903196
11.000000	12.915877
10.500000	12.914518
10.000000	12.908177
9.500000	12.906818
9.000000	12.910441
8.500000	12.900933
8.000000	12.899576
7.500000	12.908629
7.000000	12.898218
6.500000	12.903649
6.000000	12.911347
5.500000	12.906818
5.000000	12.906818
4.500000	12.901386
4.000000	12.901386
3.500000	12.896861
3.000000	12.908177
2.500000	12.884652
2.000000	12.907723
1.500000	12.906365
1.000000	12.907724
0.500000	12.905460
0.000000	12.903649
-0.500000	12.915424
-1.000000	12.911800
-1.500000	12.893242
-2.000000	12.911800
-2.500000	12.908629
-3.000000	12.899576
-3.500000	12.898671
-4.000000	12.899123
-4.500000	12.908177
-5.000000	12.913158
-5.500000	12.903197
-6.000000	12.900028
-6.500000	12.900481
-7.000000	12.900481
-7.500000	12.909988
-8.000000	12.903649
-8.500000	12.911800
-9.000000	12.906818
-9.500000	12.896409
-10.000000	12.911347
-10.500000	12.896409
-11.000000	12.904555
-11.500000	12.906366
-12.000000	12.908629
-12.500000	12.905007
-13.000000	12.890529
-13.500000	12.909988
-14.000000	12.906818
-14.500000	12.909535
-15.000000	12.911347
-15.500000	12.911347
-16.000000	12.896409
-16.500000	12.905007
-17.000000	12.909082
-17.500000	12.910894
-18.000000	12.906818
-18.500000	12.915424
-19.000000	12.906365
-19.500000	12.900934
-20.000000	12.905913
-20.500000	12.911347
-21.000000	12.913612
-21.500000	12.899576
-22.000000	12.911800
-22.500000	12.899123
-23.000000	12.903196
-23.500000	12.909988
-24.000000	12.905460
-24.500000	12.898218
-25.000000	12.902744
-25.500000	12.891433
-26.000000	12.906365
-26.500000	12.913612
-27.000000	12.898218
-27.500000	12.904554
-28.000000	12.900028
-28.500000	12.895504
-29.000000	12.918142
-29.500000	12.907271
-30.000000	12.919049
-30.500000	12.897766
-31.000000	12.900933
-31.500000	12.916330
-32.000000	12.916783
-32.500000	12.906366
-33.000000	12.907724
-33.500000	12.912706
-34.000000	12.911799
-34.500000	12.901386
-35.000000	12.907271
-35.500000	12.902744
-36.000000	12.916783
-36.500000	12.903196
-37.000000	12.900028
-37.500000	12.904554
-38.000000	12.902291
-38.500000	12.902291
-39.000000	12.900028
-39.500000	12.901839
-40.000000	12.907271
-40.500000	12.914971
-41.000000	12.905460
-41.500000	12.911347
-42.000000	12.912253
-42.500000	12.902744
-43.000000	12.899123
-43.500000	12.905460
-44.000000	12.908177
-44.500000	12.900481
-45.000000	12.902744
